Run Name,group 1
Run Date,01:49:43 PM   03-05-15
Method Name,8%
Export Format Version, 1.00
Method ID, 2234
Points/Second, 5.00
Number of Records,   1766
Offset from Run Start Time,00:00:00
Run End Time,00:05:54
Time,Second
QuadTec 1, (280.0 nm), AU
QuadTec 2, (260.0 nm), AU
Gradient Pump,<Not Selected>
QuadTec 3, (214.0 nm), AU
QuadTec 4, (405.0 nm), AU
Conductivity,mS/cm
Trace 6,<Not Available>
GP Pressure,<Not Selected>
Volume,<Not Selected>
Fraction,<Not Available>
Time,QuadTec 1,QuadTec 2,QuadTec 3,QuadTec 4,Conductivity
     0.0,0.000918,0.000915,0.005908,0.000532,  41.220
     0.2,0.000911,0.000913,0.005828,0.000510,  41.216
     0.4,0.000918,0.000918,0.005645,0.000532,  41.215
     0.6,0.000932,0.000918,0.005383,0.000532,  41.205
     0.8,0.000925,0.000915,0.005365,0.000510,  41.194
     1.0,0.000928,0.000918,0.005427,0.000532,  41.193
     1.2,0.000934,0.000924,0.005576,0.000532,  41.188
     1.4,0.000928,0.000926,0.005680,0.000510,  41.190
     1.6,0.000930,0.000923,0.005784,0.000532,  41.183
     1.8,0.000937,0.000928,0.005913,0.000532,  41.187
     2.0,0.000930,0.000930,0.005572,0.000510,  41.180
     2.2,0.000930,0.000925,0.004985,0.000532,  41.180
     2.4,-0.000081,0.000928,0.004150,0.000519,  41.183
     2.6,-0.001003,0.000930,0.004139,0.000496,  41.176
     2.8,-0.001689,0.000924,0.004401,0.000532,  41.180
     3.0,-0.001061,0.000929,0.004938,0.000532,  41.180
     3.2,0.000000,0.000927,0.005146,0.000545,  41.171
     3.4,0.000000,0.000925,0.005323,0.000567,  41.173
     3.6,0.000000,0.000000,0.006049,0.000000,  41.163
     3.8,0.000000,0.000000,0.006049,0.000000,  41.164
     4.0,0.000000,0.000000,0.006049,0.000000,  41.164
     4.2,0.000000,0.000000,0.006049,0.000000,  41.163
     4.4,0.000000,0.000000,0.000000,0.000000,  41.165
     4.6,0.000000,0.000000,0.000000,0.000000,  41.161
     4.8,0.000000,0.000000,0.000000,0.000000,  41.162
     5.0,0.000000,0.000000,0.000000,0.000000,  41.158
     5.2,0.000000,0.000000,0.000000,0.000000,  41.151
     5.4,0.000000,0.000000,0.000000,0.000000,  41.157
     5.6,0.000000,0.000000,0.000000,0.000000,  41.154
     5.8,0.000000,0.000000,0.000000,0.000000,  41.151
     6.0,0.000000,0.000000,0.000000,0.000000,  41.150
     6.2,0.000000,0.000000,0.000000,0.000000,  41.149
     6.4,0.000000,0.000000,0.000000,0.000000,  41.152
     6.6,0.000000,0.000000,0.000000,0.000000,  41.150
     6.8,0.000068,0.000000,0.000000,0.000000,  41.151
     7.0,0.000114,0.000000,0.000000,0.000000,  41.151
     7.2,0.000159,0.000000,0.000000,0.000000,  41.149
     7.4,0.000184,0.000000,0.000000,0.000000,  41.152
     7.6,0.000207,0.000000,0.000000,0.000000,  41.157
     7.8,0.000216,0.000000,0.000000,0.000000,  41.153
     8.0,0.000238,0.000000,0.000000,0.000075,  41.153
     8.2,0.000274,0.000141,-0.000029,0.000102,  41.145
     8.4,0.000313,0.000172,0.000055,0.000115,  41.149
     8.6,0.000320,0.000199,0.000124,0.000128,  41.146
     8.8,0.000333,0.000225,0.000180,0.000154,  41.144
     9.0,0.000330,0.000255,0.000212,0.000181,  41.140
     9.2,0.000329,0.000291,0.000206,0.000194,  41.145
     9.4,0.000342,0.000329,0.000190,0.000220,  41.150
     9.6,0.000348,0.000349,0.000203,0.000198,  41.147
     9.8,0.000346,0.000362,0.000233,0.000198,  41.138
    10.0,0.000356,0.000362,0.000256,0.000211,  41.125
    10.2,0.000353,0.000363,0.000256,0.000176,  41.128
    10.4,0.000349,0.000369,0.000233,0.000224,  41.130
    10.6,0.000353,0.000377,0.000197,0.000238,  41.127
    10.8,0.000350,0.000380,0.000155,0.000189,  41.125
    11.0,0.000341,0.000381,0.000107,0.000224,  41.117
    11.2,0.000342,0.000392,0.000035,0.000238,  41.118
    11.4,0.000336,0.000404,-0.000007,0.000189,  41.117
    11.6,0.000333,0.000407,-0.000050,0.000211,  41.117
    11.8,0.000327,0.000403,-0.000080,0.000224,  41.117
    12.0,0.000321,0.000394,-0.000093,0.000189,  41.114
    12.2,0.000316,0.000392,-0.000088,0.000211,  41.114
    12.4,0.000306,0.000390,-0.000058,0.000189,  41.113
    12.6,0.000297,0.000385,-0.000072,0.000176,  41.113
    12.8,0.000284,0.000371,-0.000091,0.000162,  41.111
    13.0,0.000269,0.000359,-0.000110,0.000162,  41.106
    13.2,0.000274,0.000352,-0.000130,0.000149,  41.106
    13.4,0.000269,0.000343,-0.000167,0.000172,  41.109
    13.6,0.000256,0.000326,-0.000204,0.000172,  41.109
    13.8,0.000251,0.000325,-0.000235,0.000136,  41.109
    14.0,0.000242,0.000318,-0.000267,0.000172,  41.107
    14.2,0.000229,0.000309,-0.000291,0.000172,  41.105
    14.4,0.000223,0.000301,-0.000353,0.000136,  41.107
    14.6,0.000225,0.000289,-0.000437,0.000172,  41.100
    14.8,0.000215,0.000282,-0.000545,0.000172,  41.101
    15.0,0.000215,0.000268,-0.000822,0.000136,  41.105
    15.2,0.000222,0.000262,-0.001177,0.000158,  41.102
    15.4,0.000218,0.000260,-0.001651,0.000158,  41.105
    15.6,0.000215,0.000264,-0.001640,0.000136,  41.102
    15.8,0.000216,0.000259,-0.001439,0.000158,  41.104
    16.0,0.000212,0.000250,-0.001070,0.000158,  41.101
    16.2,0.000215,0.000253,-0.000962,0.000172,  41.099
    16.4,0.000218,0.000251,-0.000892,0.000158,  41.103
    16.6,0.000211,0.000249,-0.000874,0.000158,  41.097
    16.8,0.000215,0.000256,-0.000886,0.000158,  41.105
    17.0,0.000209,0.000255,-0.000953,0.000136,  41.103
    17.2,0.000205,0.000251,-0.001080,0.000172,  41.102
    17.4,0.000212,0.000249,-0.001234,0.000172,  41.106
    17.6,0.000216,0.000249,-0.001283,0.000136,  41.105
    17.8,0.000223,0.000245,-0.001308,0.000158,  41.101
    18.0,0.000234,0.000252,-0.001296,0.000158,  41.102
    18.2,0.000246,0.000250,-0.001315,0.000149,  41.109
    18.4,0.000254,0.000247,-0.001334,0.000185,  41.106
    18.6,0.000252,0.000247,-0.001353,0.000149,  41.110
    18.8,0.000253,0.000248,-0.001353,0.000149,  41.108
    19.0,0.000252,0.000249,-0.001366,0.000136,  41.105
    19.2,0.000242,0.000252,-0.001366,0.000136,  41.101
    19.4,0.000253,0.000248,-0.001325,0.000136,  41.107
    19.6,0.000253,0.000246,-0.001267,0.000158,  41.110
    19.8,0.000246,0.000252,-0.001184,0.000158,  41.114
    20.0,0.000250,0.000251,-0.001174,0.000136,  41.113
    20.2,0.000250,0.000248,-0.001193,0.000172,  41.111
    20.4,0.000250,0.000248,-0.001228,0.000185,  41.115
    20.6,0.000250,0.000245,-0.001258,0.000149,  41.111
    20.8,0.000247,0.000246,-0.001323,0.000198,  41.115
    21.0,0.000243,0.000249,-0.001413,0.000211,  41.120
    21.2,0.000236,0.000246,-0.001437,0.000176,  41.119
    21.4,0.000233,0.000241,-0.001462,0.000211,  41.119
    21.6,0.000226,0.000248,-0.001468,0.000211,  41.120
    21.8,0.000229,0.000247,-0.001481,0.000211,  41.123
    22.0,0.000236,0.000242,-0.001481,0.000220,  41.122
    22.2,0.000229,0.000241,-0.001479,0.000233,  41.117
    22.4,0.000229,0.000245,-0.001432,0.000211,  41.122
    22.6,0.000233,0.000242,-0.001367,0.000211,  41.123
    22.8,0.000223,0.000239,-0.001265,0.000224,  41.127
    23.0,0.000227,0.000233,-0.001247,0.000176,  41.127
    23.2,0.000231,0.000238,-0.001253,0.000198,  41.127
    23.4,0.000227,0.000242,-0.001300,0.000211,  41.132
    23.6,0.000240,0.000254,-0.001347,0.000176,  41.129
    23.8,0.000249,0.000256,-0.001425,0.000224,  41.131
    24.0,0.000255,0.000258,-0.001520,0.000224,  41.128
    24.2,0.000252,0.000258,-0.001507,0.000202,  41.130
    24.4,0.000253,0.000257,-0.001484,0.000224,  41.133
    24.6,0.000252,0.000257,-0.001426,0.000211,  41.137
    24.8,0.000255,0.000262,-0.001384,0.000176,  41.139
    25.0,0.000260,0.000267,-0.001367,0.000211,  41.136
    25.2,0.000256,0.000269,-0.001331,0.000176,  41.139
    25.4,0.000266,0.000273,-0.001307,0.000189,  41.139
    25.6,0.000263,0.000278,-0.001481,0.000189,  41.144
    25.8,0.000256,0.000277,-0.001749,0.000211,  41.145
    26.0,0.000266,0.000281,-0.002089,0.000224,  41.148
    26.2,0.000263,0.000284,-0.002060,0.000176,  41.147
    26.4,0.000259,0.000282,-0.001898,0.000198,  41.152
    26.6,0.000269,0.000280,-0.001605,0.000211,  41.149
    26.8,0.000272,0.000283,-0.001504,0.000162,  41.149
    27.0,0.000278,0.000284,-0.001444,0.000198,  41.153
    27.2,0.000281,0.000284,-0.001395,0.000211,  41.155
    27.4,0.000293,0.000285,-0.001370,0.000162,  41.165
    27.6,0.000289,0.000285,-0.001388,0.000198,  41.163
    27.8,0.000292,0.000290,-0.001435,0.000211,  41.168
    28.0,0.000292,0.000286,-0.001400,0.000176,  41.171
    28.2,0.000288,0.000293,-0.001323,0.000211,  41.172
    28.4,0.000298,0.000299,-0.001246,0.000224,  41.178
    28.6,0.000301,0.000310,-0.001246,0.000189,  41.177
    28.8,0.000301,0.000314,-0.001269,0.000224,  41.181
    29.0,0.000301,0.000312,-0.001327,0.000238,  41.185
    29.2,0.000302,0.000308,-0.001369,0.000189,  41.186
    29.4,0.000302,0.000311,-0.001416,0.000224,  41.189
    29.6,0.000308,0.000312,-0.001483,0.000238,  41.190
    29.8,0.000297,0.000315,-0.001692,0.000189,  41.195
    30.0,0.000303,0.000315,-0.001997,0.000224,  41.191
    30.2,0.000296,0.000318,-0.002391,0.000238,  41.196
    30.4,0.000296,0.000318,-0.002342,0.000189,  41.201
    30.6,0.000300,0.000318,-0.002144,0.000224,  41.200
    30.8,0.000299,0.000318,-0.001792,0.000202,  41.205
    31.0,0.000309,0.000324,-0.001655,0.000202,  41.211
    31.2,0.000316,0.000321,-0.001529,0.000202,  41.219
    31.4,0.000321,0.000321,-0.001444,0.000180,  41.226
    31.6,0.000330,0.000322,-0.001379,0.000202,  41.226
    31.8,0.000340,0.000324,-0.001337,0.000189,  41.229
    32.0,0.000349,0.000325,-0.001313,0.000202,  41.236
    32.2,0.000357,0.000329,-0.001313,0.000189,  41.236
    32.4,0.000373,0.000340,-0.001343,0.000224,  41.241
    32.6,0.000378,0.000347,-0.001408,0.000224,  41.245
    32.8,0.000383,0.000359,-0.001402,0.000202,  41.250
    33.0,0.000382,0.000363,-0.001348,0.000224,  41.248
    33.2,0.000394,0.000370,-0.001294,0.000238,  41.250
    33.4,0.000400,0.000383,-0.001264,0.000215,  41.254
    33.6,0.000412,0.000387,-0.001246,0.000251,  41.261
    33.8,0.000417,0.000393,-0.001239,0.000215,  41.262
    34.0,0.000426,0.000405,-0.001239,0.000180,  41.261
    34.2,0.000435,0.000406,-0.001245,0.000215,  41.262
    34.4,0.000449,0.000417,-0.001243,0.000215,  41.268
    34.6,0.000461,0.000424,-0.001266,0.000193,  41.264
    34.8,0.000482,0.000433,-0.001206,0.000242,  41.265
    35.0,0.000500,0.000440,-0.001110,0.000242,  41.266
    35.2,0.000513,0.000453,-0.001021,0.000219,  41.272
    35.4,0.000537,0.000466,-0.001004,0.000281,  41.273
    35.6,0.000551,0.000487,-0.001009,0.000268,  41.273
    35.8,0.000564,0.000499,-0.001050,0.000281,  41.278
    36.0,0.000582,0.000510,-0.001055,0.000281,  41.277
    36.2,0.000595,0.000527,-0.001060,0.000317,  41.277
    36.4,0.000619,0.000545,-0.001059,0.000330,  41.281
    36.6,0.000644,0.000563,-0.000992,0.000294,  41.283
    36.8,0.000651,0.000578,-0.000895,0.000343,  41.284
    37.0,0.000664,0.000603,-0.000800,0.000356,  41.281
    37.2,0.000670,0.000630,-0.001017,0.000321,  41.284
    37.4,0.000677,0.000645,-0.001368,0.000356,  41.285
    37.6,0.000693,0.000668,-0.001888,0.000347,  41.289
    37.8,0.000705,0.000690,-0.002229,0.000347,  41.286
    38.0,0.000707,0.000708,-0.002539,0.000347,  41.288
    38.2,0.000709,0.000723,-0.002831,0.000360,  41.291
    38.4,0.000709,0.000744,-0.002736,0.000374,  41.289
    38.6,0.000707,0.000753,-0.002432,0.000396,  41.289
    38.8,0.000704,0.000766,-0.001905,0.000396,  41.292
    39.0,0.000692,0.000769,-0.001654,0.000374,  41.293
    39.2,0.000684,0.000772,-0.001445,0.000396,  41.290
    39.4,0.000679,0.000778,-0.001259,0.000383,  41.291
    39.6,0.000673,0.000782,-0.001152,0.000383,  41.295
    39.8,0.000674,0.000779,-0.001086,0.000405,  41.293
    40.0,0.000661,0.000770,-0.001079,0.000392,  41.292
    40.2,0.000643,0.000762,-0.001049,0.000356,  41.293
    40.4,0.000631,0.000757,-0.001061,0.000370,  41.298
    40.6,0.000615,0.000743,-0.001084,0.000370,  41.295
    40.8,0.000608,0.000731,-0.001059,0.000321,  41.295
    41.0,0.000600,0.000722,-0.001066,0.000343,  41.301
    41.2,0.000585,0.000711,-0.001047,0.000356,  41.295
    41.4,0.000586,0.000697,-0.001161,0.000308,  41.299
    41.6,0.000577,0.000689,-0.001349,0.000330,  41.296
    41.8,0.000561,0.000686,-0.001602,0.000330,  41.300
    42.0,0.000562,0.000681,-0.001586,0.000294,  41.297
    42.2,0.000554,0.000665,-0.001442,0.000317,  41.299
    42.4,0.000538,0.000653,-0.001191,0.000317,  41.299
    42.6,0.000536,0.000639,-0.001083,0.000317,  41.299
    42.8,0.000525,0.000625,-0.000983,0.000304,  41.297
    43.0,0.000513,0.000612,-0.000893,0.000304,  41.300
    43.2,0.000501,0.000604,-0.000835,0.000304,  41.298
    43.4,0.000491,0.000600,-0.000823,0.000304,  41.302
    43.6,0.000472,0.000591,-0.000870,0.000313,  41.302
    43.8,0.000454,0.000585,-0.000960,0.000313,  41.298
    44.0,0.000442,0.000576,-0.000972,0.000277,  41.299
    44.2,0.000430,0.000567,-0.000985,0.000264,  41.299
    44.4,0.000424,0.000551,-0.000986,0.000251,  41.299
    44.6,0.000428,0.000538,-0.001016,0.000215,  41.298
    44.8,0.000418,0.000527,-0.001064,0.000251,  41.298
    45.0,0.000409,0.000515,-0.001129,0.000238,  41.293
    45.2,0.000410,0.000501,-0.001106,0.000202,  41.295
    45.4,0.000404,0.000487,-0.001041,0.000251,  41.298
    45.6,0.000399,0.000479,-0.000933,0.000251,  41.293
    45.8,0.000404,0.000465,-0.000898,0.000215,  41.292
    46.0,0.000395,0.000455,-0.000886,0.000251,  41.292
    46.2,0.000382,0.000453,-0.000898,0.000251,  41.289
    46.4,0.000381,0.000451,-0.000940,0.000202,  41.283
    46.6,0.000375,0.000446,-0.001012,0.000224,  41.281
    46.8,0.000362,0.000445,-0.001114,0.000238,  41.282
    47.0,0.000363,0.000444,-0.001156,0.000189,  41.280
    47.2,0.000357,0.000435,-0.001174,0.000211,  41.276
    47.4,0.000354,0.000431,-0.001197,0.000224,  41.271
    47.6,0.000352,0.000422,-0.001156,0.000176,  41.268
    47.8,0.000349,0.000408,-0.001086,0.000198,  41.268
    48.0,0.000336,0.000397,-0.000979,0.000211,  41.263
    48.2,0.000324,0.000388,-0.001056,0.000162,  41.264
    48.4,0.000313,0.000376,-0.001223,0.000198,  41.269
    48.6,0.000307,0.000377,-0.001454,0.000211,  41.261
    48.8,0.000304,0.000376,-0.001448,0.000162,  41.260
    49.0,0.000311,0.000363,-0.001360,0.000198,  41.257
    49.2,0.000298,0.000358,-0.001163,0.000198,  41.250
    49.4,0.000284,0.000353,-0.001170,0.000162,  41.249
    49.6,0.000272,0.000346,-0.001218,0.000185,  41.250
    49.8,0.000262,0.000340,-0.001325,0.000185,  41.248
    50.0,0.000266,0.000335,-0.001571,0.000149,  41.247
    50.2,0.000266,0.000326,-0.001923,0.000172,  41.244
    50.4,0.000259,0.000324,-0.002382,0.000172,  41.241
    50.6,0.000266,0.000316,-0.002360,0.000136,  41.238
    50.8,0.000263,0.000308,-0.002146,0.000172,  41.238
    51.0,0.000256,0.000303,-0.001741,0.000172,  41.237
    51.2,0.000256,0.000303,-0.001646,0.000172,  41.236
    51.4,0.000254,0.000291,-0.001585,0.000172,  41.234
    51.6,0.000251,0.000289,-0.001621,0.000172,  41.234
    51.8,0.000251,0.000284,-0.001692,0.000172,  41.240
    52.0,0.000262,0.000281,-0.001650,0.000136,  41.233
    52.2,0.000249,0.000271,-0.001595,0.000158,  41.231
    52.4,0.000240,0.000273,-0.001548,0.000158,  41.218
    52.6,0.000231,0.000273,-0.001495,0.000136,  41.221
    52.8,0.000229,0.000269,-0.001460,0.000172,  41.223
    53.0,0.000235,0.000273,-0.001419,0.000172,  41.214
    53.2,0.000249,0.000271,-0.001407,0.000136,  41.218
    53.4,0.000252,0.000262,-0.001442,0.000158,  41.216
    53.6,0.000235,0.000261,-0.001488,0.000158,  41.216
    53.8,0.000230,0.000262,-0.001446,0.000136,  41.215
    54.0,0.000233,0.000257,-0.001406,0.000158,  41.215
    54.2,0.000223,0.000258,-0.001330,0.000158,  41.217
    54.4,0.000227,0.000259,-0.001325,0.000136,  41.219
    54.6,0.000223,0.000261,-0.001367,0.000172,  41.219
    54.8,0.000223,0.000260,-0.001426,0.000172,  41.218
    55.0,0.000223,0.000257,-0.001458,0.000149,  41.218
    55.2,0.000223,0.000252,-0.001488,0.000185,  41.220
    55.4,0.000227,0.000249,-0.001505,0.000185,  41.217
    55.6,0.000224,0.000252,-0.001530,0.000162,  41.211
    55.8,0.000225,0.000249,-0.001572,0.000185,  41.214
    56.0,0.000228,0.000245,-0.001607,0.000185,  41.213
    56.2,0.000221,0.000248,-0.001542,0.000162,  41.217
    56.4,0.000224,0.000241,-0.001442,0.000185,  41.222
    56.6,0.000227,0.000239,-0.001306,0.000185,  41.218
    56.8,0.000230,0.000242,-0.001301,0.000185,  41.214
    57.0,0.000237,0.000240,-0.001336,0.000194,  41.212
    57.2,0.000241,0.000234,-0.001438,0.000194,  41.200
    57.4,0.000246,0.000239,-0.001905,0.000185,  41.200
    57.6,0.000252,0.000234,-0.002591,0.000185,  41.205
    57.8,0.000255,0.000237,-0.003489,0.000185,  41.206
    58.0,0.000251,0.000237,-0.003537,0.000162,  41.201
    58.2,0.000243,0.000229,-0.003263,0.000185,  41.201
    58.4,0.000239,0.000232,-0.002690,0.000198,  41.198
    58.6,0.000232,0.000233,-0.002494,0.000162,  41.202
    58.8,0.000229,0.000233,-0.002333,0.000198,  41.199
    59.0,0.000219,0.000234,-0.002213,0.000198,  41.192
    59.2,0.000212,0.000240,-0.002094,0.000162,  41.195
    59.4,0.000219,0.000244,-0.001980,0.000198,  41.202
    59.6,0.000216,0.000243,-0.001903,0.000185,  41.196
    59.8,0.000213,0.000245,-0.001844,0.000185,  41.202
    60.0,0.000220,0.000237,-0.001807,0.000185,  41.202
    60.2,0.000220,0.000237,-0.001782,0.000172,  41.199
    60.4,0.000205,0.000236,-0.001788,0.000172,  41.196
    60.6,0.000203,0.000231,-0.001765,0.000172,  41.198
    60.8,0.000200,0.000229,-0.001759,0.000207,  41.198
    61.0,0.000190,0.000234,-0.001730,0.000207,  41.199
    61.2,0.000191,0.000230,-0.001665,0.000207,  41.201
    61.4,0.000197,0.000226,-0.001582,0.000207,  41.201
    61.6,0.000202,0.000219,-0.001480,0.000207,  41.203
    61.8,0.000216,0.000217,-0.001468,0.000158,  41.202
    62.0,0.000228,0.000204,-0.001491,0.000145,  41.203
    62.2,0.000237,0.000207,-0.001554,0.000145,  41.194
    62.4,0.000249,0.000199,-0.001567,0.000145,  41.205
    62.6,0.000255,0.000201,-0.001586,0.000181,  41.201
    62.8,0.000248,0.000208,-0.001600,0.000181,  41.207
    63.0,0.000245,0.000218,-0.001612,0.000181,  41.205
    63.2,0.000245,0.000224,-0.001636,0.000181,  41.204
    63.4,0.000252,0.000229,-0.001654,0.000181,  41.210
    63.6,0.000259,0.000240,-0.001668,0.000172,  41.207
    63.8,0.000259,0.000245,-0.001663,0.000185,  41.206
    64.0,0.000245,0.000242,-0.001638,0.000198,  41.208
    64.2,0.000252,0.000245,-0.001591,0.000176,  41.206
    64.4,0.000238,0.000247,-0.001562,0.000224,  41.209
    64.6,0.000238,0.000247,-0.001496,0.000238,  41.207
    64.8,0.000235,0.000250,-0.001478,0.000224,  41.209
    65.0,0.000242,0.000254,-0.001483,0.000247,  41.209
    65.2,0.000248,0.000249,-0.001506,0.000260,  41.203
    65.4,0.000248,0.000246,-0.001501,0.000211,  41.204
    65.6,0.000248,0.000245,-0.001477,0.000198,  41.204
    65.8,0.000248,0.000245,-0.001433,0.000211,  41.203
    66.0,0.000245,0.000242,-0.001487,0.000162,  41.203
    66.2,0.000239,0.000237,-0.001552,0.000198,  41.202
    66.4,0.000239,0.000242,-0.001659,0.000211,  41.204
    66.6,0.000234,0.000247,-0.001654,0.000162,  41.203
    66.8,0.000241,0.000241,-0.001600,0.000198,  41.196
    67.0,0.000243,0.000238,-0.001535,0.000198,  41.198
    67.2,0.000237,0.000241,-0.001512,0.000176,  41.197
    67.4,0.000243,0.000241,-0.001506,0.000198,  41.199
    67.6,0.000246,0.000237,-0.001506,0.000198,  41.198
    67.8,0.000235,0.000241,-0.001519,0.000198,  41.196
    68.0,0.000235,0.000238,-0.001536,0.000185,  41.195
    68.2,0.000238,0.000241,-0.001561,0.000185,  41.195
    68.4,0.000229,0.000238,-0.001577,0.000185,  41.199
    68.6,0.000230,0.000238,-0.001619,0.000149,  41.197
    68.8,0.000233,0.000235,-0.001672,0.000172,  41.198
    69.0,0.000223,0.000243,-0.001744,0.000172,  41.194
    69.2,0.000227,0.000241,-0.001773,0.000136,  41.193
    69.4,0.000230,0.000240,-0.001791,0.000172,  41.194
    69.6,0.000223,0.000238,-0.001803,0.000172,  41.190
    69.8,0.000233,0.000236,-0.002126,0.000136,  41.190
    70.0,0.000235,0.000239,-0.002621,0.000158,  41.186
    70.2,0.000223,0.000246,-0.003264,0.000158,  41.190
    70.4,0.000227,0.000244,-0.003217,0.000149,  41.189
    70.6,0.000230,0.000249,-0.002920,0.000185,  41.186
