Run Name,Group 5 20%
Run Date,02:31:25 PM   02-08-11
Method Name,20%B-Isocrat
Export Format Version, 1.00
Method ID,  329
Points/Second, 1.00
Number of Records,   1491
Offset from Run Start Time,00:00:00
Run End Time,00:24:53
Time,Second
QuadTec 1, (280.0 nm), AU
QuadTec 2, (260.0 nm), AU
Gradient Pump,<Not Selected>
QuadTec 3, (214.0 nm), AU
QuadTec 4, (405.0 nm), AU
Conductivity,mS/cm
Trace 6,<Not Available>
GP Pressure,<Not Selected>
Volume,<Not Selected>
Fraction,<Not Available>
Time,QuadTec 1,QuadTec 2,QuadTec 3,QuadTec 4,Conductivity
     0.0,0.001293,0.001033,0.013426,0.000000,  21.906
     1.0,0.001289,0.001033,0.000000,0.000000,  21.888
     2.0,0.001262,0.001033,0.000000,0.000000,  21.881
     3.0,0.000000,0.000000,0.000000,0.000000,  21.873
     4.0,0.000000,0.000000,0.000000,0.000000,  21.865
     5.0,0.000000,0.000000,0.000003,0.000324,  21.857
     6.0,0.000000,0.000000,-0.000123,0.000235,  21.847
     7.0,0.000722,0.000000,-0.000357,0.000113,  21.838
     8.0,0.000564,0.000551,-0.000443,0.000073,  21.840
     9.0,0.000432,0.000509,-0.000460,0.000087,  21.843
    10.0,0.000367,0.000407,-0.000676,0.000029,  21.859
    11.0,0.000378,0.000350,-0.000654,0.000051,  21.863
    12.0,0.000396,0.000357,-0.000742,0.000078,  21.856
    13.0,0.000419,0.000384,-0.000711,0.000118,  21.859
    14.0,0.000428,0.000410,-0.000913,0.000060,  21.843
    15.0,0.000449,0.000431,-0.000872,0.000096,  21.835
    16.0,0.000481,0.000449,-0.000809,0.000110,  21.819
    17.0,0.000490,0.000470,-0.000801,0.000101,  21.806
    18.0,0.000506,0.000482,-0.001545,0.000137,  21.800
    19.0,0.000518,0.000501,-0.000918,0.000137,  21.804
    20.0,0.000523,0.000519,-0.000908,0.000150,  21.799
    21.0,0.000534,0.000517,-0.000954,0.000150,  21.788
    22.0,0.000544,0.000527,-0.000849,0.000114,  21.789
    23.0,0.000545,0.000533,-0.000577,0.000047,  21.791
    24.0,0.000544,0.000538,-0.000811,0.000074,  21.786
    25.0,0.000514,0.000549,-0.000966,0.000101,  21.795
    26.0,0.000508,0.000530,-0.001147,0.000114,  21.799
    27.0,0.000526,0.000511,-0.001052,0.000114,  21.803
    28.0,0.000533,0.000526,-0.001004,0.000128,  21.808
    29.0,0.000544,0.000533,-0.001113,0.000128,  21.823
    30.0,0.000544,0.000547,-0.000962,0.000106,  21.824
    31.0,0.000548,0.000548,-0.000955,0.000155,  21.826
    32.0,0.000559,0.000565,-0.001085,0.000141,  21.832
    33.0,0.000578,0.000567,-0.001025,0.000155,  21.831
    34.0,0.000593,0.000586,-0.001743,0.000168,  21.838
    35.0,0.000601,0.000594,-0.001368,0.000168,  21.839
    36.0,0.000622,0.000600,-0.001258,0.000110,  21.838
    37.0,0.000627,0.000621,-0.001062,0.000146,  21.837
    38.0,0.000626,0.000631,-0.001066,0.000146,  21.834
    39.0,0.000627,0.000631,-0.001013,0.000146,  21.834
    40.0,0.000633,0.000627,-0.001694,0.000133,  21.832
    41.0,0.000627,0.000625,-0.001251,0.000110,  21.833
    42.0,0.000616,0.000629,-0.001149,0.000146,  21.831
    43.0,0.000630,0.000627,-0.001069,0.000133,  21.826
    44.0,0.000637,0.000625,-0.000984,0.000070,  21.823
    45.0,0.000618,0.000634,-0.001148,0.000106,  21.820
    46.0,0.000598,0.000641,-0.001485,0.000119,  21.813
    47.0,0.000580,0.000641,-0.001368,0.000084,  21.810
    48.0,0.000606,0.000614,-0.001234,0.000119,  21.803
    49.0,0.000614,0.000623,-0.001134,0.000097,  21.793
    50.0,0.000611,0.000618,-0.001169,0.000133,  21.786
    51.0,0.000625,0.000639,-0.001087,0.000155,  21.784
    52.0,0.000627,0.000641,-0.001100,0.000182,  21.778
    53.0,0.000629,0.000645,-0.001203,0.000182,  21.777
    54.0,0.000640,0.000651,-0.001872,0.000182,  21.791
    55.0,0.000651,0.000658,-0.001725,0.000236,  21.802
    56.0,0.000646,0.000674,-0.000233,0.000438,  21.760
    57.0,0.000650,0.000668,0.000677,0.000492,  21.754
    58.0,0.001048,0.000684,0.001157,0.000200,  21.750
    59.0,0.001134,0.001183,-0.000881,0.000092,  21.745
    60.0,0.000952,0.001277,-0.001391,0.000057,  21.738
    61.0,0.000590,0.000883,-0.001466,0.000160,  21.727
    62.0,0.000589,0.000663,-0.000921,0.000321,  21.730
    63.0,0.000676,0.000630,-0.000962,0.000232,  21.729
    64.0,0.000890,0.000679,-0.002124,0.000187,  21.718
    65.0,0.000882,0.000936,-0.001231,0.000146,  21.718
    66.0,0.000771,0.000954,-0.000934,0.000119,  21.724
    67.0,0.000738,0.000840,-0.000976,0.000106,  21.729
    68.0,0.000674,0.000809,-0.001414,0.000084,  21.735
    69.0,0.000644,0.000758,-0.001781,0.000146,  21.737
    70.0,0.000653,0.000731,-0.001362,0.000146,  21.738
    71.0,0.000668,0.000711,-0.001548,0.000110,  21.731
    72.0,0.000679,0.000720,-0.001902,0.000146,  21.732
    73.0,0.000667,0.000717,-0.001524,0.000146,  21.727
    74.0,0.000657,0.000727,-0.001153,0.000124,  21.721
    75.0,0.000663,0.000713,-0.001105,0.000146,  21.710
    76.0,0.000668,0.000712,-0.001110,0.000110,  21.703
    77.0,0.000652,0.000715,-0.001346,0.000146,  21.700
    78.0,0.000658,0.000706,-0.001235,0.000146,  21.697
    79.0,0.000658,0.000697,-0.001476,0.000110,  21.695
    80.0,0.000649,0.000694,-0.001823,0.000173,  21.684
    81.0,0.000658,0.000692,-0.001502,0.000146,  21.680
    82.0,0.000658,0.000686,-0.001010,0.000110,  21.678
    83.0,0.000658,0.000683,-0.001140,0.000146,  21.679
    84.0,0.000655,0.000688,-0.001297,0.000110,  21.680
    85.0,0.000644,0.000688,-0.001390,0.000182,  21.674
    86.0,0.000645,0.000674,-0.001137,0.000133,  21.669
    87.0,0.000661,0.000671,-0.001219,0.000084,  21.671
    88.0,0.000644,0.000680,-0.002419,0.000133,  21.665
    89.0,0.000625,0.000681,-0.001644,0.000133,  21.669
    90.0,0.000622,0.000667,-0.001493,0.000124,  21.659
    91.0,0.000643,0.000654,-0.001370,0.000160,  21.661
    92.0,0.000651,0.000667,-0.001263,0.000160,  21.657
    93.0,0.000671,0.000674,-0.001150,0.000160,  21.661
    94.0,0.000695,0.000692,-0.001134,0.000160,  21.652
    95.0,0.000685,0.000704,-0.002438,0.000124,  21.650
    96.0,0.000677,0.000698,-0.001537,0.000160,  21.650
    97.0,0.000683,0.000688,-0.002973,0.000160,  21.638
    98.0,0.000680,0.000686,-0.002043,0.000151,  21.638
    99.0,0.000690,0.000679,-0.001740,0.000173,  21.638
   100.0,0.000705,0.000700,-0.002961,0.000173,  21.635
   101.0,0.000704,0.000696,-0.001650,0.000151,  21.630
   102.0,0.000703,0.000700,-0.001429,0.000173,  21.628
   103.0,0.000691,0.000694,-0.001302,0.000151,  21.625
   104.0,0.000673,0.000685,-0.001155,0.000160,  21.618
   105.0,0.000663,0.000662,-0.001204,0.000160,  21.614
   106.0,0.000658,0.000660,-0.001690,0.000124,  21.607
   107.0,0.000645,0.000643,-0.001168,0.000133,  21.601
   108.0,0.000658,0.000635,-0.001425,0.000106,  21.598
   109.0,0.000643,0.000634,-0.001208,0.000097,  21.594
   110.0,0.000624,0.000632,-0.000992,0.000133,  21.588
   111.0,0.000610,0.000610,-0.000740,0.000110,  21.581
   112.0,0.000624,0.000592,-0.000537,0.000146,  21.580
   113.0,0.000637,0.000593,-0.000606,0.000160,  21.577
   114.0,0.000655,0.000613,-0.000371,0.000124,  21.577
   115.0,0.000666,0.000620,-0.000249,0.000173,  21.569
   116.0,0.000677,0.000623,-0.000043,0.000187,  21.565
   117.0,0.000691,0.000625,-0.000017,0.000151,  21.561
   118.0,0.000708,0.000638,-0.000318,0.000173,  21.559
   119.0,0.000731,0.000659,0.000438,0.000160,  21.559
   120.0,0.000733,0.000679,0.000782,0.000173,  21.556
   121.0,0.000754,0.000675,0.000921,0.000209,  21.556
   122.0,0.000764,0.000702,0.001172,0.000222,  21.557
   123.0,0.000782,0.000712,0.001595,0.000209,  21.549
   124.0,0.000808,0.000722,0.001075,0.000209,  21.549
   125.0,0.000848,0.000734,0.002042,0.000222,  21.555
   126.0,0.000873,0.000756,0.002566,0.000209,  21.550
   127.0,0.000897,0.000793,0.003278,0.000209,  21.551
   128.0,0.000917,0.000812,0.003963,0.000173,  21.548
   129.0,0.000954,0.000832,0.004533,0.000133,  21.546
   130.0,0.000998,0.000859,0.004944,0.000110,  21.543
   131.0,0.000999,0.000901,0.003719,0.000146,  21.549
   132.0,0.001018,0.000923,0.005412,0.000182,  21.549
   133.0,0.001060,0.000925,0.006214,0.000195,  21.544
   134.0,0.001116,0.000966,0.006781,0.000195,  21.536
   135.0,0.001157,0.001010,0.007579,0.000182,  21.530
   136.0,0.001203,0.001048,0.008422,0.000209,  21.524
   137.0,0.001250,0.001090,0.009011,0.000160,  21.519
   138.0,0.001290,0.001138,0.009790,0.000124,  21.513
   139.0,0.001357,0.001178,0.010220,0.000160,  21.500
   140.0,0.001401,0.001219,0.011171,0.000160,  21.498
   141.0,0.001437,0.001265,0.012018,0.000124,  21.491
   142.0,0.001487,0.001296,0.011624,0.000160,  21.488
   143.0,0.001545,0.001335,0.013345,0.000182,  21.478
   144.0,0.001599,0.001386,0.014398,0.000182,  21.472
   145.0,0.001656,0.001424,0.015534,0.000182,  21.466
   146.0,0.001692,0.001474,0.016452,0.000146,  21.455
   147.0,0.001740,0.001528,0.017409,0.000182,  21.449
   148.0,0.001795,0.001582,0.018356,0.000182,  21.441
   149.0,0.001841,0.001623,0.019335,0.000182,  21.431
   150.0,0.001885,0.001663,0.020402,0.000168,  21.418
   151.0,0.001951,0.001706,0.021269,0.000141,  21.401
   152.0,0.001987,0.001739,0.022181,0.000141,  21.387
   153.0,0.002024,0.001776,0.022925,0.000141,  21.367
   154.0,0.002074,0.001813,0.023649,0.000141,  21.348
   155.0,0.002111,0.001847,0.024336,0.000133,  21.322
   156.0,0.002141,0.001877,0.024151,0.000168,  21.296
   157.0,0.002195,0.001901,0.023949,0.000182,  21.268
   158.0,0.002255,0.001941,0.024848,0.000182,  21.227
   159.0,0.002305,0.001996,0.025539,0.000182,  21.196
   160.0,0.002345,0.002019,0.024445,0.000236,  21.153
   161.0,0.002389,0.002044,0.025506,0.000209,  21.114
   162.0,0.002434,0.002063,0.025281,0.000222,  21.063
   163.0,0.002465,0.002097,0.025339,0.000222,  21.020
   164.0,0.002504,0.002107,0.024775,0.000236,  20.976
   165.0,0.002542,0.002123,0.025184,0.000249,  20.938
   166.0,0.002586,0.002145,0.025223,0.000290,  20.899
   167.0,0.002622,0.002168,0.025286,0.000303,  20.862
   168.0,0.002657,0.002173,0.025283,0.000303,  20.844
   169.0,0.002685,0.002190,0.025208,0.000330,  20.821
   170.0,0.002724,0.002199,0.025503,0.000317,  20.801
   171.0,0.002755,0.002208,0.025728,0.000276,  20.797
   172.0,0.002779,0.002213,0.024563,0.000254,  20.791
   173.0,0.002776,0.002217,0.025407,0.000254,  20.805
   174.0,0.002744,0.002208,0.025846,0.000267,  20.810
   175.0,0.002787,0.002161,0.026061,0.000267,  20.838
   176.0,0.002828,0.002160,0.026753,0.000232,  20.859
   177.0,0.002851,0.002180,0.026395,0.000267,  20.888
   178.0,0.002873,0.002161,0.026398,0.000227,  20.920
   179.0,0.002873,0.002164,0.026921,0.000214,  20.945
   180.0,0.002862,0.002143,0.027574,0.000249,  20.977
   181.0,0.002880,0.002120,0.027301,0.000249,  21.016
   182.0,0.002906,0.002121,0.027431,0.000276,  21.049
   183.0,0.002920,0.002124,0.027495,0.000263,  21.076
   184.0,0.002957,0.002117,0.028409,0.000276,  21.105
   185.0,0.002974,0.002135,0.028442,0.000276,  21.137
   186.0,0.003003,0.002123,0.029018,0.000263,  21.163
   187.0,0.003035,0.002131,0.028828,0.000276,  21.179
   188.0,0.003064,0.002136,0.029641,0.000276,  21.198
   189.0,0.003110,0.002143,0.029930,0.000249,  21.222
   190.0,0.003154,0.002154,0.029843,0.000249,  21.240
   191.0,0.003179,0.002177,0.030745,0.000249,  21.243
   192.0,0.003224,0.002182,0.031087,0.000249,  21.249
   193.0,0.003286,0.002193,0.031005,0.000236,  21.248
   194.0,0.003341,0.002219,0.031472,0.000236,  21.252
   195.0,0.003361,0.002251,0.032144,0.000249,  21.258
   196.0,0.003430,0.002249,0.032203,0.000263,  21.262
   197.0,0.003501,0.002272,0.032553,0.000249,  21.259
   198.0,0.003586,0.002305,0.033273,0.000276,  21.264
   199.0,0.003639,0.002344,0.033667,0.000263,  21.266
   200.0,0.003695,0.002373,0.034250,0.000214,  21.260
   201.0,0.003747,0.002403,0.034516,0.000263,  21.261
   202.0,0.003804,0.002426,0.035265,0.000249,  21.260
   203.0,0.003888,0.002469,0.035930,0.000263,  21.259
   204.0,0.003960,0.002500,0.036445,0.000290,  21.250
   205.0,0.004047,0.002535,0.037125,0.000263,  21.251
   206.0,0.004123,0.002560,0.037054,0.000276,  21.257
   207.0,0.004190,0.002607,0.036980,0.000263,  21.255
   208.0,0.004265,0.002648,0.038597,0.000271,  21.259
   209.0,0.004339,0.002684,0.039641,0.000241,  21.252
   210.0,0.004458,0.002731,0.040405,0.000263,  21.253
   211.0,0.004543,0.002782,0.041264,0.000276,  21.250
   212.0,0.004642,0.002830,0.041977,0.000276,  21.249
   213.0,0.004754,0.002891,0.043135,0.000276,  21.242
   214.0,0.004871,0.002947,0.043393,0.000236,  21.238
   215.0,0.004974,0.003005,0.044468,0.000271,  21.234
   216.0,0.005035,0.003063,0.045682,0.000271,  21.231
   217.0,0.005131,0.003096,0.046808,0.000276,  21.231
   218.0,0.005262,0.003129,0.047402,0.000290,  21.229
   219.0,0.005408,0.003200,0.048030,0.000303,  21.230
   220.0,0.005503,0.003287,0.049178,0.000303,  21.235
   221.0,0.005600,0.003352,0.049977,0.000276,  21.232
   222.0,0.005706,0.003404,0.051010,0.000276,  21.229
   223.0,0.005816,0.003467,0.051855,0.000290,  21.233
   224.0,0.005955,0.003500,0.053216,0.000276,  21.230
   225.0,0.006089,0.003569,0.054159,0.000276,  21.231
   226.0,0.006211,0.003646,0.054637,0.000276,  21.236
   227.0,0.006312,0.003706,0.056069,0.000254,  21.231
   228.0,0.006433,0.003772,0.057294,0.000303,  21.226
   229.0,0.006567,0.003851,0.058686,0.000303,  21.229
   230.0,0.006704,0.003917,0.059749,0.000303,  21.227
   231.0,0.006861,0.003989,0.060864,0.000276,  21.226
   232.0,0.006996,0.004059,0.062026,0.000276,  21.227
   233.0,0.007140,0.004133,0.063376,0.000303,  21.224
   234.0,0.007278,0.004207,0.064895,0.000325,  21.218
   235.0,0.007411,0.004292,0.065569,0.000263,  21.209
   236.0,0.007574,0.004379,0.066349,0.000276,  21.203
   237.0,0.007671,0.004460,0.067418,0.000263,  21.190
   238.0,0.007769,0.004510,0.068907,0.000290,  21.183
   239.0,0.007945,0.004566,0.069643,0.000303,  21.180
   240.0,0.008125,0.004652,0.070840,0.000303,  21.178
   241.0,0.008218,0.004752,0.072154,0.000317,  21.167
   242.0,0.008347,0.004801,0.073464,0.000303,  21.158
   243.0,0.008503,0.004879,0.074764,0.000330,  21.152
   244.0,0.008618,0.004961,0.076100,0.000308,  21.149
   245.0,0.008781,0.005043,0.077311,0.000317,  21.149
   246.0,0.008938,0.005138,0.078418,0.000303,  21.149
   247.0,0.009090,0.005228,0.079805,0.000317,  21.155
   248.0,0.009245,0.005304,0.081067,0.000303,  21.157
   249.0,0.009392,0.005379,0.082310,0.000317,  21.158
   250.0,0.009520,0.005453,0.083857,0.000303,  21.167
   251.0,0.009674,0.005519,0.085209,0.000303,  21.173
   252.0,0.009855,0.005591,0.086429,0.000330,  21.179
   253.0,0.009982,0.005699,0.087341,0.000317,  21.191
   254.0,0.010145,0.005788,0.088730,0.000267,  21.188
   255.0,0.010295,0.005876,0.090054,0.000294,  21.197
   256.0,0.010481,0.005952,0.090720,0.000294,  21.198
   257.0,0.010652,0.006049,0.091833,0.000245,  21.206
   258.0,0.010754,0.006157,0.093398,0.000267,  21.214
   259.0,0.010847,0.006216,0.094770,0.000294,  21.219
   260.0,0.011028,0.006243,0.095069,0.000272,  21.218
   261.0,0.011163,0.006345,0.094996,0.000308,  21.219
   262.0,0.011211,0.006423,0.096803,0.000308,  21.224
   263.0,0.011324,0.006445,0.098733,0.000352,  21.224
   264.0,0.011486,0.006523,0.099783,0.000330,  21.221
   265.0,0.011637,0.006611,0.101417,0.000344,  21.219
   266.0,0.011792,0.006706,0.102817,0.000344,  21.227
   267.0,0.011970,0.006786,0.103819,0.000308,  21.220
   268.0,0.012110,0.006873,0.104823,0.000272,  21.218
   269.0,0.012242,0.006932,0.105044,0.000294,  21.212
   270.0,0.012388,0.007002,0.106915,0.000330,  21.213
   271.0,0.012472,0.007080,0.108766,0.000321,  21.212
   272.0,0.012611,0.007141,0.109774,0.000330,  21.211
   273.0,0.012791,0.007216,0.110849,0.000344,  21.211
   274.0,0.012937,0.007318,0.112043,0.000344,  21.217
   275.0,0.013070,0.007390,0.113340,0.000317,  21.214
   276.0,0.013213,0.007474,0.114297,0.000344,  21.211
   277.0,0.013362,0.007536,0.114738,0.000330,  21.214
   278.0,0.013507,0.007608,0.115482,0.000303,  21.211
   279.0,0.013596,0.007695,0.116898,0.000330,  21.212
   280.0,0.013601,0.007751,0.117024,0.000317,  21.212
   281.0,0.013737,0.007759,0.117296,0.000294,  21.212
   282.0,0.013869,0.007847,0.118284,0.000330,  21.213
   283.0,0.013865,0.007906,0.119616,0.000344,  21.211
   284.0,0.013941,0.007895,0.121039,0.000344,  21.208
   285.0,0.014103,0.007953,0.122244,0.000344,  21.207
   286.0,0.014269,0.008031,0.123247,0.000321,  21.201
   287.0,0.014388,0.008119,0.124106,0.000299,  21.198
   288.0,0.014534,0.008175,0.124873,0.000321,  21.198
   289.0,0.014619,0.008263,0.125774,0.000321,  21.198
   290.0,0.014721,0.008333,0.126403,0.000321,  21.196
   291.0,0.014814,0.008380,0.126952,0.000344,  21.196
   292.0,0.014926,0.008437,0.128104,0.000357,  21.198
   293.0,0.015005,0.008479,0.128772,0.000357,  21.197
   294.0,0.015148,0.008529,0.129789,0.000357,  21.190
   295.0,0.015267,0.008605,0.130885,0.000371,  21.185
   296.0,0.015337,0.008678,0.131905,0.000357,  21.187
   297.0,0.015423,0.008708,0.132387,0.000357,  21.186
   298.0,0.015513,0.008777,0.132966,0.000357,  21.183
   299.0,0.015626,0.008810,0.132888,0.000330,  21.179
   300.0,0.015673,0.008868,0.133479,0.000344,  21.174
   301.0,0.015652,0.008905,0.134425,0.000330,  21.176
   302.0,0.015743,0.008887,0.132683,0.000344,  21.177
   303.0,0.015788,0.008927,0.133114,0.000371,  21.179
   304.0,0.015710,0.008967,0.134473,0.000371,  21.181
   305.0,0.015732,0.008929,0.135586,0.000406,  21.181
   306.0,0.015847,0.008913,0.136180,0.000371,  21.181
   307.0,0.015959,0.008985,0.137236,0.000384,  21.182
   308.0,0.016066,0.009059,0.137226,0.000398,  21.182
   309.0,0.016143,0.009104,0.137854,0.000384,  21.178
   310.0,0.016214,0.009153,0.136832,0.000371,  21.177
   311.0,0.016249,0.009183,0.137713,0.000371,  21.184
   312.0,0.016261,0.009190,0.138182,0.000344,  21.184
   313.0,0.016321,0.009212,0.139420,0.000344,  21.184
   314.0,0.016340,0.009262,0.140252,0.000344,  21.182
   315.0,0.016455,0.009260,0.140201,0.000357,  21.180
   316.0,0.016511,0.009318,0.140653,0.000344,  21.176
   317.0,0.016526,0.009351,0.140952,0.000379,  21.179
   318.0,0.016588,0.009359,0.141277,0.000366,  21.171
   319.0,0.016578,0.009385,0.141277,0.000344,  21.172
   320.0,0.016652,0.009400,0.141021,0.000366,  21.172
   321.0,0.016685,0.009435,0.141064,0.000366,  21.172
   322.0,0.016591,0.009445,0.141209,0.000344,  21.167
   323.0,0.016591,0.009413,0.139203,0.000330,  21.173
   324.0,0.016631,0.009397,0.138635,0.000308,  21.169
   325.0,0.016513,0.009399,0.139665,0.000344,  21.167
   326.0,0.016390,0.009327,0.140082,0.000321,  21.161
   327.0,0.016491,0.009277,0.140335,0.000299,  21.157
   328.0,0.016565,0.009333,0.140956,0.000321,  21.160
   329.0,0.016640,0.009391,0.141515,0.000357,  21.157
   330.0,0.016669,0.009445,0.141429,0.000371,  21.157
   331.0,0.016698,0.009440,0.140844,0.000357,  21.154
   332.0,0.016688,0.009458,0.140036,0.000357,  21.149
   333.0,0.016640,0.009454,0.139804,0.000357,  21.149
   334.0,0.016656,0.009414,0.140728,0.000371,  21.143
   335.0,0.016585,0.009429,0.140560,0.000371,  21.143
   336.0,0.016633,0.009408,0.140388,0.000384,  21.143
   337.0,0.016695,0.009432,0.140532,0.000371,  21.137
   338.0,0.016663,0.009444,0.140424,0.000371,  21.142
   339.0,0.016636,0.009429,0.140537,0.000357,  21.139
   340.0,0.016602,0.009427,0.140018,0.000357,  21.139
   341.0,0.016615,0.009399,0.139543,0.000344,  21.135
   342.0,0.016588,0.009409,0.139063,0.000344,  21.136
   343.0,0.016508,0.009396,0.138932,0.000321,  21.131
   344.0,0.016390,0.009347,0.137540,0.000330,  21.126
   345.0,0.016413,0.009278,0.135320,0.000344,  21.118
   346.0,0.016249,0.009289,0.134424,0.000344,  21.119
   347.0,0.016037,0.009177,0.136049,0.000344,  21.118
   348.0,0.016108,0.009076,0.135792,0.000344,  21.114
   349.0,0.016142,0.009126,0.136219,0.000344,  21.110
   350.0,0.016168,0.009153,0.136505,0.000344,  21.111
   351.0,0.016140,0.009171,0.135308,0.000344,  21.114
   352.0,0.016139,0.009155,0.135007,0.000308,  21.108
   353.0,0.016089,0.009147,0.134546,0.000344,  21.109
   354.0,0.016013,0.009111,0.133982,0.000344,  21.103
   355.0,0.015957,0.009071,0.133596,0.000330,  21.099
   356.0,0.015870,0.009041,0.134002,0.000330,  21.098
   357.0,0.015875,0.008991,0.132722,0.000344,  21.096
